IESNA:LM-63-2002
[TEST] 
[TESTLAB] LEDFLEX
[TESTDATE] 2018-08-15
[ISSUEDATE] 2018-08-15 13:52:52
[LAMPPOSITION] 0,0
[OTHER] 
[MANUFAC] LEDFLEX
[LUMCAT] UN10TV274
[LUMINAIRE] 
[LAMP] 3014
[OTHER] 
[OTHER] Gamma(deg)    Fz(lm)      Ft(lm)     %Lum    %Lamp
[OTHER]   0- 10         8.56        8.56     3.16     3.19
[OTHER]  10- 20        24.49       33.04    12.20    12.32
[OTHER]  20- 30        36.97       70.01    25.84    26.10
[OTHER]  30- 40        44.43      114.44    42.24    42.67
[OTHER]  40- 50        46.07      160.52    59.25    59.85
[OTHER]  50- 60        41.98      202.50    74.75    75.50
[OTHER]  60- 70        33.23      235.72    87.01    87.89
[OTHER]  70- 80        21.00      256.72    94.76    95.72
[OTHER]  80- 90         7.24      263.96    97.44    98.42
[OTHER]  90-100         2.38      266.35    98.32    99.31
[OTHER] 100-110         1.70      268.05    98.95    99.94
[OTHER] 110-120         1.31      269.36    99.43   100.43
[OTHER] 120-130         0.87      270.23    99.75   100.76
[OTHER] 130-140         0.42      270.65    99.90   100.91
[OTHER] 140-150         0.17      270.81    99.97   100.97
[OTHER] 150-160         0.05      270.86    99.98   100.99
[OTHER] 160-170         0.03      270.89    99.99   101.00
[OTHER] 170-180         0.01      270.91   100.00   101.01
[OTHER] 
TILT=NONE
1 317 1 31 25 1 2 1 0.01 0.01
1 1 4.5
0 6 12 18 24 30 36 42 48 54 60 66 72 78 84 90 96 102 108 114 120 126 132 138 144 150 156 162 168 174 180
0 15 30 45 60 75 90 105 120 135 150 165 180 195 210 225 240 255 270 285 300 315 330 345 360
106.872 105.785 103.255 99.06 93.611 87.027 79.711 71.934 63.625 54.807 45.907 37.208 28.00 18.368 8.616 6.394 5.153 4.054 3.948 3.735 3.428 2.636 1.974 1.418 1.123 0.52 0.201 0.118 0.142 0.177 0.189
106.872 105.927 103.492 99.603 94.261 87.784 80.503 72.785 64.416 55.434 46.356 37.48 28.178 18.438 8.652 6.182 4.976 3.90 3.806 3.581 3.262 2.399 1.702 1.111 0.756 0.378 0.177 0.118 0.142 0.189 0.189
106.872 105.915 103.575 99.71 94.072 87.866 81.378 74.451 65.835 56.367 46.723 37.22 27.764 17.729 7.789 5.201 4.149 3.215 3.144 2.943 2.151 1.513 1.194 0.78 0.544 0.272 0.142 0.106 0.142 0.165 0.189
106.872 105.714 103.232 99.249 93.871 87.157 79.522 71.189 62.478 53.885 45.659 35.931 26.168 16.335 6.418 3.369 2.849 2.423 2.068 1.619 1.194 0.969 0.674 0.461 0.248 0.13 0.095 0.118 0.142 0.177 0.189
106.872 105.738 103.232 99.402 94.237 87.949 80.361 72.016 63.14 53.814 44.229 34.513 25.885 15.897 5.709 1.643 1.584 1.229 0.969 0.626 0.52 0.39 0.248 0.118 0.071 0.071 0.106 0.13 0.165 0.189 0.189
106.872 105.773 103.421 99.521 94.497 88.398 81.236 73.175 64.334 54.914 45.233 35.388 25.235 15.885 6.028 0.603 0.544 0.331 0.095 0.00 0.00 0.00 0.00 0.012 0.035 0.071 0.106 0.13 0.154 0.177 0.189
106.872 105.939 103.598 99.887 94.97 88.895 81.768 73.896 65.386 56.367 46.853 37.255 27.315 17.103 6.879 0.355 0.402 0.366 0.071 0.00 0.00 0.00 0.00 0.012 0.035 0.071 0.095 0.13 0.154 0.177 0.189
106.872 106.009 103.823 100.289 95.384 89.438 82.394 74.499 66.012 56.982 47.574 37.893 27.965 17.717 7.423 0.426 0.508 0.366 0.071 0.00 0.00 0.00 0.00 0.012 0.047 0.071 0.106 0.13 0.165 0.189 0.189
106.872 106.60 104.627 101.093 96.317 90.372 83.387 75.562 67.23 58.341 48.555 38.697 28.603 18.438 8.285 1.371 1.277 1.194 0.816 0.496 0.272 0.213 0.024 0.012 0.012 0.035 0.083 0.118 0.142 0.165 0.189
106.872 106.825 105.56 102.605 97.807 91.897 84.793 77.111 68.506 59.05 49.11 39.288 29.407 19.254 9.574 2.813 2.317 2.092 1.761 1.324 1.028 0.721 0.556 0.307 0.071 0.047 0.059 0.095 0.142 0.177 0.189
106.872 106.813 105.43 102.582 98.48 92.961 86.294 78.222 69.18 59.594 49.867 40.163 30.518 21.003 11.075 4.184 3.558 2.718 2.293 2.258 1.927 1.407 0.969 0.686 0.378 0.083 0.071 0.095 0.13 0.154 0.189
106.872 106.754 105.135 102.026 97.606 92.074 85.562 77.583 68.802 59.476 50.056 40.695 31.57 21.795 11.855 4.775 4.22 3.179 2.423 2.529 2.541 2.21 1.537 1.052 0.65 0.165 0.059 0.095 0.13 0.165 0.189
106.872 106.648 104.887 101.683 97.038 91.412 84.758 76.532 67.702 58.613 49.264 40.175 31.215 20.377 11.252 4.976 4.385 3.711 2.73 2.884 2.766 2.258 1.454 1.064 1.04 0.437 0.154 0.106 0.142 0.165 0.189
106.872 106.518 104.615 101.069 95.762 89.356 82.205 74.073 65.468 56.415 47.266 38.319 29.833 20.696 11.347 4.74 4.149 3.581 2.648 2.801 2.813 2.364 1.525 0.863 0.721 0.355 0.142 0.118 0.154 0.189 0.189
106.872 106.589 104.804 101.683 97.216 91.637 85.219 77.477 68.707 59.204 49.477 39.867 30.282 20.897 11.181 4.125 3.652 3.274 2.553 2.423 2.269 1.927 1.513 1.028 0.556 0.154 0.083 0.095 0.13 0.165 0.189
106.872 106.695 104.922 101.66 97.05 91.235 84.332 76.626 68.081 58.637 48.838 39.075 29.277 19.313 9.857 2.707 2.435 2.258 1.903 1.596 1.383 1.123 0.78 0.437 0.118 0.059 0.083 0.106 0.13 0.165 0.189
106.872 106.624 104.851 101.553 96.944 91.176 84.238 76.401 67.998 59.003 49.252 39.359 29.265 19.112 9.113 1.407 1.182 1.182 0.898 0.721 0.449 0.319 0.118 0.035 0.024 0.059 0.095 0.13 0.154 0.177 0.189
106.872 106.624 104.804 101.565 96.861 91.022 84.084 76.236 67.631 58.53 48.992 39.229 29.277 18.97 8.723 0.461 0.154 0.118 0.00 0.00 0.00 0.00 0.00 0.012 0.059 0.095 0.13 0.154 0.177 0.213 0.189
106.872 106.352 104.437 101.045 96.258 90.396 83.434 75.55 67.052 57.868 48.448 38.709 28.781 18.651 8.321 0.012 0.00 0.00 0.00 0.00 0.00 0.00 0.00 0.00 0.024 0.047 0.083 0.106 0.142 0.165 0.189
106.872 106.222 104.213 100.75 95.998 90.112 83.21 75.361 66.662 57.384 47.763 37.976 27.977 17.895 7.683 0.189 0.118 0.012 0.00 0.00 0.00 0.00 0.00 0.00 0.035 0.059 0.083 0.118 0.142 0.165 0.189
106.872 105.95 103.953 100.868 96.116 90.018 82.654 74.499 65.658 56.486 46.935 37.267 27.291 17.28 7.151 1.489 1.347 1.028 0.922 0.615 0.402 0.366 0.095 0.035 0.035 0.071 0.095 0.13 0.142 0.165 0.189
106.872 105.761 103.575 100.206 95.573 89.888 82.772 74.558 65.941 56.616 47.136 37.172 27.268 17.493 7.434 3.239 2.825 2.399 2.009 1.915 1.466 1.17 0.886 0.473 0.189 0.083 0.106 0.118 0.142 0.177 0.189
106.872 105.726 103.291 99.509 94.332 88.174 81.153 73.707 65.457 56.592 47.124 37.657 28.284 18.391 8.356 5.106 4.149 3.369 3.12 2.967 2.553 1.915 1.454 1.028 0.567 0.225 0.106 0.118 0.154 0.177 0.189
106.872 105.785 103.196 99.13 93.693 87.193 79.912 72.253 64.05 55.103 46.143 37.385 28.237 18.628 8.782 6.158 4.964 3.877 3.818 3.57 3.239 2.482 1.856 1.277 1.005 0.39 0.165 0.118 0.154 0.177 0.189
106.872 105.785 103.255 99.06 93.611 87.027 79.711 71.934 63.625 54.807 45.907 37.208 28.00 18.368 8.616 6.394 5.153 4.054 3.948 3.735 3.428 2.636 1.974 1.418 1.123 0.52 0.201 0.118 0.142 0.177 0.189
