IESNA:LM-63-2002
[TEST] 
[TESTLAB] LEDFLEX
[TESTDATE] 2018-09-13
[ISSUEDATE] 2018-09-21 14:34:16
[LAMPPOSITION] 0,0
[OTHER] 
[MANUFAC] LEDFLEX
[LUMCAT] UN16TVRGB12
[LUMINAIRE] 
[LAMP] 5050
[OTHER] 
[OTHER] Gamma(deg)    Fz(lm)      Ft(lm)     %Lum    %Lamp
[OTHER]   0- 10        12.93       12.93     3.15     3.50
[OTHER]  10- 20        37.11       50.05    12.17    13.53
[OTHER]  20- 30        56.36      106.41    25.88    28.76
[OTHER]  30- 40        67.99      174.40    42.41    47.13
[OTHER]  40- 50        70.60      245.00    59.58    66.21
[OTHER]  50- 60        64.48      309.48    75.26    83.64
[OTHER]  60- 70        51.15      360.63    87.70    97.47
[OTHER]  70- 80        32.45      393.08    95.59   106.24
[OTHER]  80- 90        11.25      404.33    98.33   109.28
[OTHER]  90-100         2.08      406.41    98.84   109.84
[OTHER] 100-110         1.58      407.99    99.22   110.27
[OTHER] 110-120         1.17      409.15    99.50   110.58
[OTHER] 120-130         0.77      409.92    99.69   110.79
[OTHER] 130-140         0.47      410.39    99.81   110.92
[OTHER] 140-150         0.35      410.74    99.89   111.01
[OTHER] 150-160         0.25      411.00    99.95   111.08
[OTHER] 160-170         0.15      411.14    99.99   111.12
[OTHER] 170-180         0.05      411.19   100.00   111.13
[OTHER] 
TILT=NONE
1 443 1 31 13 1 2 1 0.016 0.016
1 1 12
0 6 12 18 24 30 36 42 48 54 60 66 72 78 84 90 96 102 108 114 120 126 132 138 144 150 156 162 168 174 180
0 30 60 90 120 150 180 210 240 270 300 330 360
163.599 162.617 159.899 155.457 149.111 140.575 129.883 117.515 103.818 89.498 74.891 60.044 45.09 30.136 15.206 3.783 2.095 1.904 1.724 1.533 1.317 1.054 0.778 0.503 0.491 0.527 0.527 0.539 0.551 0.587 0.599
163.599 162.773 160.079 155.577 149.207 140.838 130.362 118.353 104.919 90.743 76.16 61.338 46.371 31.309 16.271 4.203 2.323 2.047 1.76 1.556 1.317 1.018 0.73 0.659 0.647 0.635 0.623 0.611 0.599 0.611 0.599
163.599 162.832 159.995 155.182 148.477 139.964 129.715 118.006 104.907 91.031 76.651 61.876 46.862 31.752 16.607 3.771 2.059 1.868 1.712 1.473 1.209 1.149 1.09 1.018 0.946 0.874 0.814 0.73 0.682 0.623 0.599
163.599 162.868 160.007 155.074 148.118 139.365 128.961 117.108 104.213 90.42 75.957 61.254 46.12 30.759 15.421 2.275 1.497 1.533 1.545 1.509 1.449 1.377 1.293 1.197 1.102 0.994 0.886 0.802 0.718 0.623 0.599
163.599 162.916 160.115 155.313 148.465 139.713 129.344 117.455 104.416 90.564 76.112 61.35 46.335 31.058 15.876 3.58 2.622 2.251 2.131 1.616 1.281 1.221 1.161 1.09 1.018 0.934 0.862 0.79 0.706 0.647 0.599
163.599 163.024 160.438 155.756 148.956 140.168 129.512 117.275 104.093 90.073 75.454 60.787 45.809 30.687 15.744 4.55 3.46 3.089 2.85 2.442 1.904 1.317 0.85 0.778 0.778 0.73 0.718 0.67 0.659 0.635 0.599
163.599 162.725 159.923 155.074 148.094 138.982 128.075 115.695 102.297 88.217 73.742 59.051 44.252 29.094 14.296 4.37 3.352 3.113 2.874 2.634 2.263 1.832 1.173 0.647 0.635 0.659 0.659 0.575 0.575 0.587 0.599
163.599 162.533 159.516 154.451 147.315 138.228 127.368 114.953 101.567 87.475 72.903 58.201 43.258 28.196 13.35 3.903 3.029 2.718 2.502 2.227 1.844 1.293 0.73 0.575 0.647 0.659 0.682 0.659 0.647 0.635 0.599
163.599 162.342 158.989 153.565 146.082 136.791 125.92 113.635 100.322 86.265 71.694 56.884 41.869 26.544 11.53 2.323 1.76 1.377 1.018 0.635 0.299 0.311 0.371 0.419 0.479 0.515 0.539 0.563 0.587 0.599 0.599
163.599 162.21 158.666 152.991 145.316 135.905 124.89 112.582 99.316 85.248 70.70 55.854 40.708 25.323 9.95 0.431 0.275 0.00 0.00 0.00 0.084 0.144 0.216 0.275 0.323 0.383 0.443 0.491 0.527 0.575 0.599
163.599 162.258 158.869 153.458 146.19 137.091 126.303 114.174 100.812 86.672 72.185 57.315 42.217 27.107 12.033 1.808 1.245 0.97 0.682 0.443 0.311 0.335 0.383 0.419 0.455 0.491 0.515 0.563 0.599 0.623 0.599
163.599 162.294 159.30 154.595 148.07 139.521 128.817 116.473 102.944 88.60 73.861 58.955 43.929 28.807 13.745 3.089 1.999 1.772 1.556 1.341 1.102 0.826 0.539 0.503 0.527 0.539 0.551 0.563 0.587 0.611 0.599
163.599 162.617 159.899 155.457 149.111 140.575 129.883 117.515 103.818 89.498 74.891 60.044 45.09 30.136 15.206 3.783 2.095 1.904 1.724 1.533 1.317 1.054 0.778 0.503 0.491 0.527 0.527 0.539 0.551 0.587 0.599
